# Kepler Instrument Response Function (high resolution)
# Source: Kepler Instrument Handbook
# https://keplergo.github.io/KeplerScienceWebsite/the-kepler-space-telescope.html
# Author: Jeff Van Cleve (NASA ARC)
# version: 1.0
# date: 2009/11/05
# feedback: keplergo@mail.arc.nasa.gov

#lambda Transmission
# um
0.401    3.424E-04
0.402    2.973E-04
0.403    2.853E-04
0.404    3.305E-04
0.405    3.981E-04
0.406    4.674E-04
0.407    5.121E-04
0.408    5.376E-04
0.409    5.777E-04
0.410    6.905E-04
0.411    9.656E-04
0.412    1.441E-03
0.413    2.082E-03
0.414    2.756E-03
0.415    3.377E-03
0.416    3.994E-03
0.417    4.842E-03
0.418    6.326E-03
0.419    8.848E-03
0.420    1.278E-02
0.421    1.821E-02
0.422    2.507E-02
0.423    3.332E-02
0.424    4.333E-02
0.425    5.630E-02
0.426    7.321E-02
0.427    9.461E-02
0.428    1.205E-01
0.429    1.501E-01
0.430    1.815E-01
0.431    2.125E-01
0.432    2.417E-01
0.433    2.704E-01
0.434    2.988E-01
0.435    3.282E-01
0.436    3.559E-01
0.437    3.811E-01
0.438    4.020E-01
0.439    4.173E-01
0.440    4.278E-01
0.441    4.360E-01
0.442    4.409E-01
0.443    4.450E-01
0.444    4.487E-01
0.445    4.519E-01
0.446    4.553E-01
0.447    4.585E-01
0.448    4.617E-01
0.449    4.638E-01
0.450    4.648E-01
0.451    4.656E-01
0.452    4.669E-01
0.453    4.685E-01
0.454    4.725E-01
0.455    4.777E-01
0.456    4.843E-01
0.457    4.912E-01
0.458    4.966E-01
0.459    5.002E-01
0.460    5.023E-01
0.461    5.023E-01
0.462    5.015E-01
0.463    5.010E-01
0.464    5.021E-01
0.465    5.042E-01
0.466    5.087E-01
0.467    5.149E-01
0.468    5.217E-01
0.469    5.284E-01
0.470    5.335E-01
0.471    5.362E-01
0.472    5.376E-01
0.473    5.375E-01
0.474    5.365E-01
0.475    5.360E-01
0.476    5.375E-01
0.477    5.403E-01
0.478    5.456E-01
0.479    5.522E-01
0.480    5.584E-01
0.481    5.652E-01
0.482    5.696E-01
0.483    5.729E-01
0.484    5.765E-01
0.485    5.786E-01
0.486    5.811E-01
0.487    5.837E-01
0.488    5.876E-01
0.489    5.918E-01
0.490    5.964E-01
0.491    6.012E-01
0.492    6.052E-01
0.493    6.076E-01
0.494    6.095E-01
0.495    6.103E-01
0.496    6.110E-01
0.497    6.120E-01
0.498    6.143E-01
0.499    6.183E-01
0.500    6.239E-01
0.501    6.290E-01
0.502    6.341E-01
0.503    6.393E-01
0.504    6.431E-01
0.505    6.455E-01
0.506    6.450E-01
0.507    6.435E-01
0.508    6.409E-01
0.509    6.371E-01
0.510    6.340E-01
0.511    6.317E-01
0.512    6.314E-01
0.513    6.324E-01
0.514    6.354E-01
0.515    6.392E-01
0.516    6.431E-01
0.517    6.473E-01
0.518    6.510E-01
0.519    6.540E-01
0.520    6.556E-01
0.521    6.567E-01
0.522    6.580E-01
0.523    6.594E-01
0.524    6.608E-01
0.525    6.629E-01
0.526    6.652E-01
0.527    6.672E-01
0.528    6.695E-01
0.529    6.710E-01
0.530    6.720E-01
0.531    6.719E-01
0.532    6.708E-01
0.533    6.697E-01
0.534    6.680E-01
0.535    6.665E-01
0.536    6.663E-01
0.537    6.672E-01
0.538    6.692E-01
0.539    6.722E-01
0.540    6.760E-01
0.541    6.800E-01
0.542    6.833E-01
0.543    6.858E-01
0.544    6.875E-01
0.545    6.875E-01
0.546    6.868E-01
0.547    6.855E-01
0.548    6.834E-01
0.549    6.819E-01
0.550    6.809E-01
0.551    6.810E-01
0.552    6.832E-01
0.553    6.865E-01
0.554    6.897E-01
0.555    6.928E-01
0.556    6.972E-01
0.557    7.006E-01
0.558    7.023E-01
0.559    7.033E-01
0.560    7.035E-01
0.561    7.033E-01
0.562    7.021E-01
0.563    7.006E-01
0.564    6.997E-01
0.565    6.998E-01
0.566    7.000E-01
0.567    7.022E-01
0.568    7.049E-01
0.569    7.072E-01
0.570    7.101E-01
0.571    7.128E-01
0.572    7.150E-01
0.573    7.157E-01
0.574    7.153E-01
0.575    7.145E-01
0.576    7.130E-01
0.577    7.115E-01
0.578    7.094E-01
0.579    7.076E-01
0.580    7.069E-01
0.581    7.071E-01
0.582    7.087E-01
0.583    7.112E-01
0.584    7.145E-01
0.585    7.177E-01
0.586    7.208E-01
0.587    7.230E-01
0.588    7.244E-01
0.589    7.250E-01
0.590    7.242E-01
0.591    7.220E-01
0.592    7.189E-01
0.593    7.159E-01
0.594    7.131E-01
0.595    7.106E-01
0.596    7.088E-01
0.597    7.081E-01
0.598    7.084E-01
0.599    7.102E-01
0.600    7.135E-01
0.601    7.155E-01
0.602    7.170E-01
0.603    7.188E-01
0.604    7.208E-01
0.605    7.214E-01
0.606    7.208E-01
0.607    7.185E-01
0.608    7.148E-01
0.609    7.106E-01
0.610    7.058E-01
0.611    7.003E-01
0.612    6.954E-01
0.613    6.904E-01
0.614    6.860E-01
0.615    6.836E-01
0.616    6.815E-01
0.617    6.814E-01
0.618    6.812E-01
0.619    6.833E-01
0.620    6.855E-01
0.621    6.883E-01
0.622    6.910E-01
0.623    6.936E-01
0.624    6.950E-01
0.625    6.964E-01
0.626    6.967E-01
0.627    6.954E-01
0.628    6.932E-01
0.629    6.904E-01
0.630    6.870E-01
0.631    6.830E-01
0.632    6.798E-01
0.633    6.766E-01
0.634    6.729E-01
0.635    6.708E-01
0.636    6.686E-01
0.637    6.673E-01
0.638    6.672E-01
0.639    6.671E-01
0.640    6.679E-01
0.641    6.691E-01
0.642    6.703E-01
0.643    6.714E-01
0.644    6.727E-01
0.645    6.730E-01
0.646    6.740E-01
0.647    6.735E-01
0.648    6.727E-01
0.649    6.711E-01
0.650    6.701E-01
0.651    6.683E-01
0.652    6.674E-01
0.653    6.656E-01
0.654    6.638E-01
0.655    6.622E-01
0.656    6.608E-01
0.657    6.588E-01
0.658    6.584E-01
0.659    6.579E-01
0.660    6.568E-01
0.661    6.566E-01
0.662    6.560E-01
0.663    6.558E-01
0.664    6.554E-01
0.665    6.556E-01
0.666    6.549E-01
0.667    6.559E-01
0.668    6.543E-01
0.669    6.539E-01
0.670    6.531E-01
0.671    6.529E-01
0.672    6.519E-01
0.673    6.511E-01
0.674    6.503E-01
0.675    6.491E-01
0.676    6.468E-01
0.677    6.465E-01
0.678    6.450E-01
0.679    6.444E-01
0.680    6.420E-01
0.681    6.407E-01
0.682    6.400E-01
0.683    6.373E-01
0.684    6.355E-01
0.685    6.335E-01
0.686    6.318E-01
0.687    6.296E-01
0.688    6.276E-01
0.689    6.254E-01
0.690    6.242E-01
0.691    6.229E-01
0.692    6.210E-01
0.693    6.197E-01
0.694    6.185E-01
0.695    6.172E-01
0.696    6.172E-01
0.697    6.163E-01
0.698    6.157E-01
0.699    6.165E-01
0.700    6.159E-01
0.701    6.150E-01
0.702    6.135E-01
0.703    6.129E-01
0.704    6.110E-01
0.705    6.104E-01
0.706    6.093E-01
0.707    6.070E-01
0.708    6.065E-01
0.709    6.039E-01
0.710    6.025E-01
0.711    6.002E-01
0.712    5.968E-01
0.713    5.959E-01
0.714    5.933E-01
0.715    5.907E-01
0.716    5.889E-01
0.717    5.860E-01
0.718    5.840E-01
0.719    5.820E-01
0.720    5.814E-01
0.721    5.784E-01
0.722    5.771E-01
0.723    5.762E-01
0.724    5.748E-01
0.725    5.740E-01
0.726    5.725E-01
0.727    5.708E-01
0.728    5.706E-01
0.729    5.689E-01
0.730    5.670E-01
0.731    5.666E-01
0.732    5.645E-01
0.733    5.638E-01
0.734    5.642E-01
0.735    5.613E-01
0.736    5.603E-01
0.737    5.595E-01
0.738    5.592E-01
0.739    5.582E-01
0.740    5.562E-01
0.741    5.549E-01
0.742    5.532E-01
0.743    5.523E-01
0.744    5.502E-01
0.745    5.486E-01
0.746    5.471E-01
0.747    5.460E-01
0.748    5.439E-01
0.749    5.428E-01
0.750    5.412E-01
0.751    5.383E-01
0.752    5.370E-01
0.753    5.359E-01
0.754    5.334E-01
0.755    5.321E-01
0.756    5.311E-01
0.757    5.284E-01
0.758    5.266E-01
0.759    5.247E-01
0.760    5.228E-01
0.761    5.207E-01
0.762    5.202E-01
0.763    5.172E-01
0.764    5.150E-01
0.765    5.134E-01
0.766    5.113E-01
0.767    5.087E-01
0.768    5.053E-01
0.769    5.044E-01
0.770    5.022E-01
0.771    5.003E-01
0.772    4.982E-01
0.773    4.957E-01
0.774    4.934E-01
0.775    4.905E-01
0.776    4.892E-01
0.777    4.885E-01
0.778    4.870E-01
0.779    4.855E-01
0.780    4.841E-01
0.781    4.836E-01
0.782    4.821E-01
0.783    4.801E-01
0.784    4.802E-01
0.785    4.793E-01
0.786    4.783E-01
0.787    4.772E-01
0.788    4.758E-01
0.789    4.763E-01
0.790    4.761E-01
0.791    4.743E-01
0.792    4.727E-01
0.793    4.715E-01
0.794    4.707E-01
0.795    4.688E-01
0.796    4.674E-01
0.797    4.652E-01
0.798    4.619E-01
0.799    4.690E-01
0.800    4.681E-01
0.801    4.646E-01
0.802    4.612E-01
0.803    4.588E-01
0.804    4.558E-01
0.805    4.524E-01
0.806    4.494E-01
0.807    4.471E-01
0.808    4.446E-01
0.809    4.423E-01
0.810    4.395E-01
0.811    4.377E-01
0.812    4.357E-01
0.813    4.334E-01
0.814    4.308E-01
0.815    4.288E-01
0.816    4.273E-01
0.817    4.250E-01
0.818    4.219E-01
0.819    4.195E-01
0.820    4.156E-01
0.821    4.133E-01
0.822    4.101E-01
0.823    4.069E-01
0.824    4.028E-01
0.825    4.003E-01
0.826    3.979E-01
0.827    3.943E-01
0.828    3.911E-01
0.829    3.872E-01
0.830    3.830E-01
0.831    3.795E-01
0.832    3.762E-01
0.833    3.725E-01
0.834    3.684E-01
0.835    3.646E-01
0.836    3.611E-01
0.837    3.587E-01
0.838    3.561E-01
0.839    3.539E-01
0.840    3.520E-01
0.841    3.492E-01
0.842    3.473E-01
0.843    3.452E-01
0.844    3.434E-01
0.845    3.410E-01
0.846    3.393E-01
0.847    3.377E-01
0.848    3.344E-01
0.849    3.329E-01
0.850    3.322E-01
0.851    3.307E-01
0.852    3.284E-01
0.853    3.272E-01
0.854    3.256E-01
0.855    3.236E-01
0.856    3.224E-01
0.857    3.211E-01
0.858    3.182E-01
0.859    3.181E-01
0.860    3.155E-01
0.861    3.127E-01
0.862    3.107E-01
0.863    3.087E-01
0.864    3.067E-01
0.865    3.046E-01
0.866    3.027E-01
0.867    3.009E-01
0.868    2.989E-01
0.869    2.968E-01
0.870    2.948E-01
0.871    2.925E-01
0.872    2.897E-01
0.873    2.865E-01
0.874    2.830E-01
0.875    2.786E-01
0.876    2.736E-01
0.877    2.673E-01
0.878    2.605E-01
0.879    2.523E-01
0.880    2.434E-01
0.881    2.332E-01
0.882    2.222E-01
0.883    2.101E-01
0.884    1.972E-01
0.885    1.838E-01
0.886    1.695E-01
0.887    1.554E-01
0.888    1.410E-01
0.889    1.262E-01
0.890    1.125E-01
0.891    9.869E-02
0.892    8.603E-02
0.893    7.401E-02
0.894    6.322E-02
0.895    5.340E-02
0.896    4.464E-02
0.897    3.715E-02
0.898    3.064E-02
0.899    2.485E-02
0.900    2.032E-02
0.901    1.660E-02
0.902    1.346E-02
0.903    1.097E-02
0.904    8.958E-03
0.905    7.281E-03
0.906    5.943E-03
0.907    4.877E-03
0.908    3.998E-03
0.909    3.305E-03
0.910    2.737E-03
0.911    2.321E-03
0.912    1.901E-03
0.913    1.598E-03
0.914    1.378E-03
0.915    1.169E-03
0.916    1.019E-03
0.917    8.584E-04
0.918    7.582E-04
0.919    6.634E-04
0.920    5.874E-04
0.921    5.434E-04
0.922    4.853E-04
0.923    4.374E-04
0.924    4.194E-04
0.925    3.746E-04
0.926    3.457E-04
0.927    3.125E-04
0.928    3.310E-04
0.929    3.092E-04
0.930    2.809E-04
0.931    2.648E-04
0.932    2.602E-04
0.933    2.596E-04
0.934    2.345E-04
0.935    2.215E-04
0.936    2.081E-04
0.937    1.972E-04
0.938    2.261E-04
0.939    2.006E-04
0.940    2.166E-04
0.941    2.254E-04
0.942    2.011E-04
0.943    1.804E-04
0.944    1.845E-04
0.945    1.630E-04
0.946    1.663E-04
0.947    1.548E-04
0.948    1.562E-04
0.949    1.402E-04
